#Distance(A) Planar-Average-Potential(eV)/Densitiy(e/A)
  0.0000           -18.94890
  0.0611           -18.75913
  0.1222           -18.14306
  0.1833           -17.10378
  0.2444           -15.66035
  0.3054           -13.85951
  0.3665           -11.78749
  0.4276            -9.57083
  0.4887            -7.36999
  0.5498            -5.35579
  0.6109            -3.68051
  0.6720            -2.43321
  0.7331            -1.57115
  0.7941            -0.92704
  0.8552            -0.40901
  0.9163            -0.03112
  0.9774             0.22869
  1.0385             0.36083
  1.0996             0.34422
  1.1607             0.17919
  1.2218            -0.11099
  1.2828            -0.52561
  1.3439            -1.08400
  1.4050            -1.77819
  1.4661            -2.72337
  1.5272            -4.08405
  1.5883            -5.88674
  1.6494            -8.03557
  1.7105           -10.37582
  1.7716           -12.73559
  1.8326           -14.95080
  1.8937           -16.88870
  1.9548           -18.45168
  2.0159           -19.58008
  2.0770           -20.24058
  2.1381           -20.42048
  2.1992           -20.11591
  2.2603           -19.33363
  2.3213           -18.09064
  2.3824           -16.42730
  2.4435           -14.41215
  2.5046           -12.15322
  2.5657            -9.79167
  2.6268            -7.49694
  2.6879            -5.43793
  2.7490            -3.75932
  2.8100            -2.53039
  2.8711            -1.68324
  2.9322            -1.04107
  2.9933            -0.53125
  3.0544            -0.16346
  3.1155             0.08619
  3.1766             0.20569
  3.2377             0.16813
  3.2988            -0.01121
  3.3598            -0.30500
  3.4209            -0.72605
  3.4820            -1.28610
  3.5431            -1.98772
  3.6042            -2.96740
  3.6653            -4.36601
  3.7264            -6.16759
  3.7875            -8.25823
  3.8485           -10.47602
  3.9096           -12.65125
  3.9707           -14.63176
  4.0318           -16.30456
  4.0929           -17.59696
  4.1540           -18.47487
  4.2151           -18.92732
  4.2762           -18.95644
  4.3372           -18.56447
  4.3983           -17.75508
  4.4594           -16.53619
  4.5205           -14.93557
  4.5816           -13.01027
  4.6427           -10.85939
  4.7038            -8.61960
  4.7649            -6.45830
  4.8259            -4.54272
  4.8870            -3.01363
  4.9481            -1.91770
  5.0092            -1.15730
  5.0703            -0.56608
  5.1314            -0.10023
  5.1925             0.22845
  5.2536             0.44310
  5.3147             0.50766
  5.3757             0.40706
  5.4368             0.18453
  5.4979            -0.15787
  5.5590            -0.64082
  5.6201            -1.27738
  5.6812            -2.09484
  5.7423            -3.25307
  5.8034            -4.83750
  5.8644            -6.79116
  5.9255            -8.99052
  5.9866           -11.26703
  6.0477           -13.45084
  6.1088           -15.39029
  6.1699           -16.97497
  6.2310           -18.13350
  6.2921           -18.83495
  6.3531           -19.07181
  6.4142           -18.85396
  6.4753           -18.19383
  6.5364           -17.11063
  6.5975           -15.62923
  6.6586           -13.79684
  6.7197           -11.68681
  6.7808            -9.41228
  6.8419            -7.11614
  6.9029            -4.96589
  6.9640            -3.11887
  7.0251            -1.69006
  7.0862            -0.65687
  7.1473             0.11027
  7.2084             0.76818
  7.2695             1.33272
  7.3306             1.81029
  7.3916             2.19982
  7.4527             2.49685
  7.5138             2.74635
  7.5749             2.95256
  7.6360             3.12383
  7.6971             3.26403
  7.7582             3.38086
  7.8193             3.47672
  7.8803             3.55686
  7.9414             3.62269
  8.0025             3.67793
  8.0636             3.72332
  8.1247             3.76156
  8.1858             3.79296
  8.2469             3.81955
  8.3080             3.84134
  8.3691             3.85987
  8.4301             3.87502
  8.4912             3.88798
  8.5523             3.89853
  8.6134             3.90762
  8.6745             3.91498
  8.7356             3.92138
  8.7967             3.92650
  8.8578             3.93102
  8.9188             3.93459
  8.9799             3.93779
  9.0410             3.94028
  9.1021             3.94255
  9.1632             3.94428
  9.2243             3.94590
  9.2854             3.94709
  9.3465             3.94825
  9.4075             3.94908
  9.4686             3.94992
  9.5297             3.95048
  9.5908             3.95109
  9.6519             3.95147
  9.7130             3.95192
  9.7741             3.95218
  9.8352             3.95251
  9.8963             3.95268
  9.9573             3.95293
 10.0184             3.95303
 10.0795             3.95322
 10.1406             3.95329
 10.2017             3.95344
 10.2628             3.95347
 10.3239             3.95359
 10.3850             3.95360
 10.4460             3.95370
 10.5071             3.95370
 10.5682             3.95378
 10.6293             3.95377
 10.6904             3.95384
 10.7515             3.95383
 10.8126             3.95389
 10.8737             3.95387
 10.9347             3.95392
 10.9958             3.95390
 11.0569             3.95394
 11.1180             3.95392
 11.1791             3.95396
 11.2402             3.95394
 11.3013             3.95398
 11.3624             3.95396
 11.4234             3.95400
 11.4845             3.95397
 11.5456             3.95401
 11.6067             3.95399
 11.6678             3.95402
 11.7289             3.95400
 11.7900             3.95403
 11.8511             3.95401
 11.9122             3.95403
 11.9732             3.95402
 12.0343             3.95404
 12.0954             3.95402
 12.1565             3.95405
 12.2176             3.95403
 12.2787             3.95405
 12.3398             3.95404
 12.4009             3.95406
 12.4619             3.95404
 12.5230             3.95406
 12.5841             3.95405
 12.6452             3.95407
 12.7063             3.95406
 12.7674             3.95407
 12.8285             3.95406
 12.8896             3.95407
 12.9506             3.95406
 13.0117             3.95408
 13.0728             3.95407
 13.1339             3.95408
 13.1950             3.95407
 13.2561             3.95408
 13.3172             3.95408
 13.3783             3.95409
 13.4394             3.95408
 13.5004             3.95409
 13.5615             3.95408
 13.6226             3.95409
 13.6837             3.95409
 13.7448             3.95409
 13.8059             3.95409
 13.8670             3.95410
 13.9281             3.95409
 13.9891             3.95410
 14.0502             3.95409
 14.1113             3.95410
 14.1724             3.95410
 14.2335             3.95410
 14.2946             3.95410
 14.3557             3.95410
 14.4168             3.95410
 14.4778             3.95410
 14.5389             3.95410
 14.6000             3.95410
 14.6611             3.95410
 14.7222             3.95410
 14.7833             3.95410
 14.8444             3.95410
 14.9055             3.95410
 14.9666             3.95410
 15.0276             3.95410
 15.0887             3.95410
 15.1498             3.95411
 15.2109             3.95410
 15.2720             3.95411
 15.3331             3.95410
 15.3942             3.95411
 15.4553             3.95410
 15.5163             3.95411
 15.5774             3.95410
 15.6385             3.95411
 15.6996             3.95410
 15.7607             3.95411
 15.8218             3.95410
 15.8829             3.95411
 15.9440             3.95410
 16.0050             3.95411
 16.0661             3.95410
 16.1272             3.95411
 16.1883             3.95410
 16.2494             3.95411
 16.3105             3.93844
 16.3716             3.89357
 16.4327             3.82591
 16.4938             3.74548
 16.5548             3.66504
 16.6159             3.59739
 16.6770             3.55250
 16.7381             3.53685
 16.7992             3.53684
 16.8603             3.53685
 16.9214             3.53684
 16.9825             3.53685
 17.0435             3.53684
 17.1046             3.53685
 17.1657             3.53684
 17.2268             3.53685
 17.2879             3.53684
 17.3490             3.53685
 17.4101             3.53684
 17.4712             3.53685
 17.5322             3.53684
 17.5933             3.53685
 17.6544             3.53684
 17.7155             3.53685
 17.7766             3.53684
 17.8377             3.53685
 17.8988             3.53684
 17.9599             3.53685
 18.0209             3.53684
 18.0820             3.53685
 18.1431             3.53684
 18.2042             3.53686
 18.2653             3.53684
 18.3264             3.53686
 18.3875             3.53684
 18.4486             3.53686
 18.5097             3.53684
 18.5707             3.53686
 18.6318             3.53684
 18.6929             3.53686
 18.7540             3.53685
 18.8151             3.53686
 18.8762             3.53685
 18.9373             3.53686
 18.9984             3.53685
 19.0594             3.53687
 19.1205             3.53685
 19.1816             3.53687
 19.2427             3.53685
 19.3038             3.53687
 19.3649             3.53685
 19.4260             3.53687
 19.4871             3.53686
 19.5481             3.53688
 19.6092             3.53686
 19.6703             3.53688
 19.7314             3.53686
 19.7925             3.53688
 19.8536             3.53686
 19.9147             3.53688
 19.9758             3.53687
 20.0369             3.53689
 20.0979             3.53687
 20.1590             3.53689
 20.2201             3.53687
 20.2812             3.53690
 20.3423             3.53688
 20.4034             3.53690
 20.4645             3.53688
 20.5256             3.53690
 20.5866             3.53689
 20.6477             3.53691
 20.7088             3.53689
 20.7699             3.53691
 20.8310             3.53689
 20.8921             3.53692
 20.9532             3.53690
 21.0143             3.53692
 21.0753             3.53690
 21.1364             3.53692
 21.1975             3.53690
 21.2586             3.53692
 21.3197             3.53690
 21.3808             3.53692
 21.4419             3.53690
 21.5030             3.53692
 21.5641             3.53689
 21.6251             3.53691
 21.6862             3.53688
 21.7473             3.53690
 21.8084             3.53686
 21.8695             3.53688
 21.9306             3.53683
 21.9917             3.53684
 22.0528             3.53679
 22.1138             3.53679
 22.1749             3.53673
 22.2360             3.53672
 22.2971             3.53665
 22.3582             3.53662
 22.4193             3.53652
 22.4804             3.53647
 22.5415             3.53635
 22.6025             3.53626
 22.6636             3.53610
 22.7247             3.53597
 22.7858             3.53575
 22.8469             3.53555
 22.9080             3.53525
 22.9691             3.53496
 23.0302             3.53455
 23.0912             3.53413
 23.1523             3.53357
 23.2134             3.53296
 23.2745             3.53218
 23.3356             3.53132
 23.3967             3.53023
 23.4578             3.52900
 23.5189             3.52747
 23.5800             3.52573
 23.6410             3.52360
 23.7021             3.52113
 23.7632             3.51814
 23.8243             3.51465
 23.8854             3.51044
 23.9465             3.50551
 24.0076             3.49958
 24.0687             3.49262
 24.1297             3.48426
 24.1908             3.47440
 24.2519             3.46260
 24.3130             3.44864
 24.3741             3.43194
 24.4352             3.41213
 24.4963             3.38844
 24.5574             3.36029
 24.6184             3.32661
 24.6795             3.28650
 24.7406             3.23849
 24.8017             3.18116
 24.8628             3.11247
 24.9239             3.03022
 24.9850             2.93151
 25.0461             2.81302
 25.1072             2.67054
 25.1682             2.49895
 25.2293             2.29218
 25.2904             2.04616
 25.3515             1.75139
 25.4126             1.36763
 25.4737             0.90157
 25.5348             0.35880
 25.5959            -0.29007
 25.6569            -1.03722
 25.7180            -1.98012
 25.7791            -3.29073
 25.8402            -5.01607
 25.9013            -7.07082
 25.9624            -9.30618
 26.0235           -11.55443
 26.0846           -13.65789
 26.1456           -15.49220
 26.2067           -16.97256
 26.2678           -18.05270
 26.3289           -18.71298
