#Distance(A) Planar-Average-Potential(eV)/Densitiy(e/A)
  0.0000           -19.50749
  0.0619           -19.30819
  0.1238           -18.66656
  0.1857           -17.58713
  0.2476           -16.09280
  0.3094           -14.23556
  0.3713           -12.10982
  0.4332            -9.85081
  0.4951            -7.62833
  0.5570            -5.61876
  0.6189            -3.97576
  0.6808            -2.77744
  0.7427            -1.95637
  0.8045            -1.33454
  0.8664            -0.84336
  0.9283            -0.49461
  0.9902            -0.26419
  1.0521            -0.17004
  1.1140            -0.22847
  1.1759            -0.43311
  1.2378            -0.75739
  1.2996            -1.21260
  1.3615            -1.80510
  1.4234            -2.54465
  1.4853            -3.58718
  1.5472            -5.06445
  1.6091            -6.95113
  1.6710            -9.11591
  1.7329           -11.38803
  1.7947           -13.59113
  1.8566           -15.57577
  1.9185           -17.23203
  1.9804           -18.49475
  2.0423           -19.33278
  2.1042           -19.73815
  2.1661           -19.70957
  2.2280           -19.24765
  2.2898           -18.35236
  2.3517           -17.03594
  2.4136           -15.33309
  2.4755           -13.31819
  2.5374           -11.10725
  2.5993            -8.85825
  2.6612            -6.74783
  2.7231            -4.94580
  2.7849            -3.56985
  2.8468            -2.62326
  2.9087            -1.95193
  2.9706            -1.42360
  3.0325            -1.03980
  3.0944            -0.78634
  3.1563            -0.65979
  3.2182            -0.72121
  3.2801            -0.91964
  3.3419            -1.23569
  3.4038            -1.68666
  3.4657            -2.30134
  3.5276            -3.09449
  3.5895            -4.15576
  3.6514            -5.61360
  3.7133            -7.44505
  3.7752            -9.55677
  3.8370           -11.78615
  3.8989           -13.96078
  3.9608           -15.91317
  4.0227           -17.52135
  4.0846           -18.70233
  4.1465           -19.42441
  4.2084           -19.68182
  4.2703           -19.49337
  4.3321           -18.87655
  4.3940           -17.85473
  4.4559           -16.44750
  4.5178           -14.69402
  4.5797           -12.65339
  4.6416           -10.42810
  4.7035            -8.15244
  4.7654            -5.99598
  4.8272            -4.12541
  4.8891            -2.66644
  4.9510            -1.59826
  5.0129            -0.81695
  5.0748            -0.16013
  5.1367             0.41502
  5.1986             0.90010
  5.2605             1.28398
  5.3223             1.58373
  5.3842             1.83778
  5.4461             2.04594
  5.5080             2.21903
  5.5699             2.36060
  5.6318             2.47873
  5.6937             2.57561
  5.7556             2.65667
  5.8174             2.72326
  5.8793             2.77916
  5.9412             2.82511
  6.0031             2.86382
  6.0650             2.89565
  6.1269             2.92257
  6.1888             2.94468
  6.2507             2.96346
  6.3126             2.97885
  6.3744             2.99199
  6.4363             3.00272
  6.4982             3.01193
  6.5601             3.01943
  6.6220             3.02591
  6.6839             3.03115
  6.7458             3.03572
  6.8077             3.03938
  6.8695             3.04260
  6.9314             3.04516
  6.9933             3.04745
  7.0552             3.04923
  7.1171             3.05086
  7.1790             3.05210
  7.2409             3.05326
  7.3028             3.05412
  7.3646             3.05495
  7.4265             3.05555
  7.4884             3.05614
  7.5503             3.05656
  7.6122             3.05699
  7.6741             3.05727
  7.7360             3.05758
  7.7979             3.05777
  7.8597             3.05800
  7.9216             3.05812
  7.9835             3.05830
  8.0454             3.05837
  8.1073             3.05850
  8.1692             3.05855
  8.2311             3.05865
  8.2930             3.05867
  8.3548             3.05875
  8.4167             3.05876
  8.4786             3.05881
  8.5405             3.05881
  8.6024             3.05886
  8.6643             3.05885
  8.7262             3.05889
  8.7881             3.05888
  8.8499             3.05891
  8.9118             3.05889
  8.9737             3.05892
  9.0356             3.05890
  9.0975             3.05892
  9.1594             3.05890
  9.2213             3.05892
  9.2832             3.05890
  9.3451             3.05892
  9.4069             3.05890
  9.4688             3.05891
  9.5307             3.05889
  9.5926             3.05891
  9.6545             3.05889
  9.7164             3.05890
  9.7783             3.05888
  9.8402             3.05889
  9.9020             3.05887
  9.9639             3.05888
 10.0258             3.05886
 10.0877             3.05887
 10.1496             3.05885
 10.2115             3.05886
 10.2734             3.05884
 10.3353             3.05885
 10.3971             3.05883
 10.4590             3.05884
 10.5209             3.05883
 10.5828             3.05884
 10.6447             3.05882
 10.7066             3.05883
 10.7685             3.05881
 10.8304             3.05882
 10.8922             3.05880
 10.9541             3.05881
 11.0160             3.05879
 11.0779             3.05880
 11.1398             3.05879
 11.2017             3.05880
 11.2636             3.05878
 11.3255             3.05879
 11.3873             3.05877
 11.4492             3.05878
 11.5111             3.05877
 11.5730             3.05878
 11.6349             3.05876
 11.6968             3.05877
 11.7587             3.05876
 11.8206             3.05877
 11.8824             3.05876
 11.9443             3.05877
 12.0062             3.05875
 12.0681             3.05876
 12.1300             3.05875
 12.1919             3.05876
 12.2538             3.05875
 12.3157             3.05876
 12.3776             3.05874
 12.4394             3.05875
 12.5013             3.05874
 12.5632             3.05875
 12.6251             3.05874
 12.6870             3.05875
 12.7489             3.05874
 12.8108             3.05875
 12.8727             3.05874
 12.9345             3.05875
 12.9964             3.05874
 13.0583             3.05875
 13.1202             3.05874
 13.1821             3.05875
 13.2440             3.05874
 13.3059             3.05875
 13.3678             3.05874
 13.4296             3.05875
 13.4915             3.05874
 13.5534             3.05875
 13.6153             3.05874
 13.6772             3.05875
 13.7391             3.05874
 13.8010             3.05596
 13.8629             3.04794
 13.9247             3.03587
 13.9866             3.02149
 14.0485             3.00713
 14.1104             2.99504
 14.1723             2.98705
 14.2342             2.98424
 14.2961             2.98426
 14.3580             2.98424
 14.4198             2.98426
 14.4817             2.98424
 14.5436             2.98426
 14.6055             2.98424
 14.6674             2.98426
 14.7293             2.98424
 14.7912             2.98425
 14.8531             2.98424
 14.9149             2.98425
 14.9768             2.98424
 15.0387             2.98425
 15.1006             2.98424
 15.1625             2.98425
 15.2244             2.98423
 15.2863             2.98425
 15.3482             2.98423
 15.4101             2.98424
 15.4719             2.98423
 15.5338             2.98424
 15.5957             2.98422
 15.6576             2.98423
 15.7195             2.98422
 15.7814             2.98423
 15.8433             2.98421
 15.9052             2.98422
 15.9670             2.98421
 16.0289             2.98422
 16.0908             2.98420
 16.1527             2.98421
 16.2146             2.98419
 16.2765             2.98420
 16.3384             2.98418
 16.4003             2.98420
 16.4621             2.98417
 16.5240             2.98419
 16.5859             2.98417
 16.6478             2.98418
 16.7097             2.98416
 16.7716             2.98417
 16.8335             2.98414
 16.8954             2.98416
 16.9572             2.98413
 17.0191             2.98415
 17.0810             2.98412
 17.1429             2.98413
 17.2048             2.98411
 17.2667             2.98412
 17.3286             2.98410
 17.3905             2.98411
 17.4523             2.98408
 17.5142             2.98409
 17.5761             2.98407
 17.6380             2.98408
 17.6999             2.98405
 17.7618             2.98406
 17.8237             2.98404
 17.8856             2.98405
 17.9474             2.98402
 18.0093             2.98403
 18.0712             2.98400
 18.1331             2.98402
 18.1950             2.98399
 18.2569             2.98400
 18.3188             2.98397
 18.3807             2.98398
 18.4426             2.98395
 18.5044             2.98397
 18.5663             2.98393
 18.6282             2.98395
 18.6901             2.98392
 18.7520             2.98393
 18.8139             2.98390
 18.8758             2.98391
 18.9377             2.98388
 18.9995             2.98389
 19.0614             2.98386
 19.1233             2.98387
 19.1852             2.98384
 19.2471             2.98385
 19.3090             2.98381
 19.3709             2.98383
 19.4328             2.98379
 19.4946             2.98380
 19.5565             2.98376
 19.6184             2.98377
 19.6803             2.98372
 19.7422             2.98373
 19.8041             2.98368
 19.8660             2.98368
 19.9279             2.98362
 19.9897             2.98362
 20.0516             2.98355
 20.1135             2.98354
 20.1754             2.98346
 20.2373             2.98343
 20.2992             2.98333
 20.3611             2.98328
 20.4230             2.98315
 20.4848             2.98308
 20.5467             2.98291
 20.6086             2.98279
 20.6705             2.98257
 20.7324             2.98239
 20.7943             2.98209
 20.8562             2.98182
 20.9181             2.98142
 20.9799             2.98102
 21.0418             2.98047
 21.1037             2.97989
 21.1656             2.97912
 21.2275             2.97829
 21.2894             2.97721
 21.3513             2.97602
 21.4132             2.97450
 21.4751             2.97279
 21.5369             2.97065
 21.5988             2.96820
 21.6607             2.96517
 21.7226             2.96167
 21.7845             2.95738
 21.8464             2.95237
 21.9083             2.94628
 21.9702             2.93912
 22.0320             2.93044
 22.0939             2.92020
 22.1558             2.90783
 22.2177             2.89317
 22.2796             2.87547
 22.3415             2.85443
 22.4034             2.82905
 22.4653             2.79880
 22.5271             2.76232
 22.5890             2.71872
 22.6509             2.66610
 22.7128             2.60305
 22.7747             2.52684
 22.8366             2.43529
 22.8985             2.32443
 22.9604             2.19094
 23.0222             2.02888
 23.0841             1.83314
 23.1460             1.59716
 23.2079             1.31703
 23.2698             0.95373
 23.3317             0.49977
 23.3936            -0.02878
 23.4555            -0.66409
 23.5173            -1.39996
 23.5792            -2.31130
 23.6411            -3.58034
 23.7030            -5.27928
 23.7649            -7.33346
 23.8268            -9.59314
 23.8887           -11.88494
 23.9506           -14.04228
 24.0124           -15.93215
 24.0743           -17.46201
 24.1362           -18.58043
 24.1981           -19.26422
